# FILE      =  I3-24-08-07T091951.hot
# NOTEA     = PI3-Cone West
# NOTEB     = Spectral Integration AIRSPY-mini Test
# OBSERVER  = Science Aficionado
# DEVICE    = airspy,bias=1
# DATADIR   = ../data/
# SITE      = PI3-Cone West
# CITY      = Green Bank
# REGION    = West Virginia
# COUNTRY   = US
# TELTYPE   = Bubble Wrap  Horn
# FRAME     = TOPO
# GAIN1     = 20.0
# GAIN2     = 0.0
# GAIN3     = 0.0
# GAIN4     = 0.0
# Count     = 118336
# REFFREQ   = 1420405751.7680001
# OBSFREQ   = 1421500000.0
# OBSBW     = 6000000.0
# Duration  = 116443.2622499999
# DeltaX    = 5859.375
# TSYS      = 200.0
# TRX       = 100.0
# TRMS      = 2.0
# TINT      = 1.0
# KPERC     = 100.0
# GAINFACT  = 1.0
# BUNIT     = Counts
# NCHAN     = 2048
# NSPEC     = 1
# NTIME     = 0
# NSAMPLES  = 0
# EPEAK     = 4.10875183718
# ERMS      = 0.995973393526
# EMJD      = 58568.808999981004 
# REFCHAN   = 1024.0
# REFSAMPL  = 256.0
# NAVE      = 344
# NMEDIAN   = 1024
# Fft_rate  = 5000
# UTC       = 2024-08-07 09:19:51.448033
# SECONDS   =       0.0000000000 
# LST       = 01:06:04.060
# AZ        = 0.0
# EL        = -70.0
# TELLON    = -79:50:22.920
# TELLAT    = +38:25:59.160
# TELALT    = 0.0
# RA        = 13:03:27.620
# DEC       = -18:10:10.300
# GALLON    = 306:56:40.80
# GALLAT    = +44:36:30.70
# ALT_SUN   = -12:32:41.9
# AZ_SUN    = +57:10:43.5
# ETAA      = 0.8
# ETAB      = 0.99
# POLANGLE  = 0.0
# TELSIZEAM = 1.0
# TELSIZEBM = 1.0
# AST_VERS  = 5.0.1
# N  Frequency  Intensity 
#       (Hz)    (Counts) 
0000 1418500000 7.5216
0001 1418502929 10.1359
0002 1418505859 10.4259
0003 1418508789 10.6980
0004 1418511718 10.9383
0005 1418514648 11.2777
0006 1418517578 11.5819
0007 1418520507 11.8608
0008 1418523437 12.2867
0009 1418526367 12.6025
0010 1418529296 12.9676
0011 1418532226 13.4345
0012 1418535156 13.8006
0013 1418538085 14.2680
0014 1418541015 14.7719
0015 1418543945 15.2405
0016 1418546875 15.7864
0017 1418549804 16.3433
0018 1418552734 16.9225
0019 1418555664 17.5533
0020 1418558593 18.2068
0021 1418561523 18.8897
0022 1418564453 19.6133
0023 1418567382 20.3729
0024 1418570312 21.1628
0025 1418573242 21.9953
0026 1418576171 22.8643
0027 1418579101 23.7789
0028 1418582031 24.7173
0029 1418584960 25.7428
0030 1418587890 26.9750
0031 1418590820 27.8983
0032 1418593750 28.9630
0033 1418596679 30.1496
0034 1418599609 31.3293
0035 1418602539 32.6001
0036 1418605468 33.8850
0037 1418608398 35.2242
0038 1418611328 36.6533
0039 1418614257 38.1270
0040 1418617187 39.6417
0041 1418620117 41.2347
0042 1418623046 42.8658
0043 1418625976 44.5552
0044 1418628906 46.3087
0045 1418631835 48.1469
0046 1418634765 50.0515
0047 1418637695 51.9559
0048 1418640625 53.9404
0049 1418643554 55.9888
0050 1418646484 58.1162
0051 1418649414 60.3209
0052 1418652343 62.6262
0053 1418655273 65.0483
0054 1418658203 67.6927
0055 1418661132 70.2937
0056 1418664062 72.6397
0057 1418666992 75.1131
0058 1418669921 77.6157
0059 1418672851 80.2878
0060 1418675781 83.1397
0061 1418678710 85.9962
0062 1418681640 89.0634
0063 1418684570 92.2269
0064 1418687500 95.0473
0065 1418690429 98.1982
0066 1418693359 101.4427
0067 1418696289 104.7207
0068 1418699218 108.1066
0069 1418702148 111.5747
0070 1418705078 115.0710
0071 1418708007 118.6439
0072 1418710937 122.3275
0073 1418713867 126.0950
0074 1418716796 129.9212
0075 1418719726 133.7715
0076 1418722656 137.7761
0077 1418725585 141.7718
0078 1418728515 145.8554
0079 1418731445 149.9825
0080 1418734375 154.2065
0081 1418737304 158.4117
0082 1418740234 162.7631
0083 1418743164 167.1637
0084 1418746093 171.6416
0085 1418749023 176.1992
0086 1418751953 180.7711
0087 1418754882 185.4877
0088 1418757812 190.1444
0089 1418760742 194.8959
0090 1418763671 199.5206
0091 1418766601 204.3956
0092 1418769531 209.2867
0093 1418772460 214.2337
0094 1418775390 219.2024
0095 1418778320 224.2857
0096 1418781250 229.3636
0097 1418784179 234.4825
0098 1418787109 239.7388
0099 1418790039 244.8918
0100 1418792968 250.0508
0101 1418795898 255.2445
0102 1418798828 260.4735
0103 1418801757 265.8192
0104 1418804687 271.1807
0105 1418807617 276.5796
0106 1418810546 282.0106
0107 1418813476 287.4246
0108 1418816406 292.8555
0109 1418819335 298.3082
0110 1418822265 303.7174
0111 1418825195 309.2446
0112 1418828125 314.7435
0113 1418831054 320.1514
0114 1418833984 325.7218
0115 1418836914 331.2785
0116 1418839843 336.8628
0117 1418842773 342.4574
0118 1418845703 347.8026
0119 1418848632 353.4266
0120 1418851562 359.1498
0121 1418854492 364.7878
0122 1418857421 370.1457
0123 1418860351 375.6808
0124 1418863281 381.0530
0125 1418866210 386.7794
0126 1418869140 392.2178
0127 1418872070 397.9238
0128 1418875000 403.3778
0129 1418877929 408.8615
0130 1418880859 414.5939
0131 1418883789 420.2966
0132 1418886718 425.8453
0133 1418889648 431.1215
0134 1418892578 436.4904
0135 1418895507 441.8550
0136 1418898437 447.4175
0137 1418901367 453.0907
0138 1418904296 458.4114
0139 1418907226 463.9667
0140 1418910156 469.3868
0141 1418913085 474.8161
0142 1418916015 480.5567
0143 1418918945 485.8941
0144 1418921875 491.1969
0145 1418924804 496.5017
0146 1418927734 502.1464
0147 1418930664 507.4955
0148 1418933593 513.1358
0149 1418936523 518.6044
0150 1418939453 523.9029
0151 1418942382 529.2779
0152 1418945312 534.6861
0153 1418948242 540.1372
0154 1418951171 545.6827
0155 1418954101 550.8701
0156 1418957031 556.3335
0157 1418959960 561.8050
0158 1418962890 567.2830
0159 1418965820 572.8176
0160 1418968750 578.4351
0161 1418971679 583.8889
0162 1418974609 589.3724
0163 1418977539 594.9508
0164 1418980468 600.6168
0165 1418983398 605.9781
0166 1418986328 611.6914
0167 1418989257 618.0799
0168 1418992187 625.6699
0169 1418995117 632.0010
0170 1418998046 636.5114
0171 1419000976 640.9077
0172 1419003906 645.6670
0173 1419006835 651.6228
0174 1419009765 657.4688
0175 1419012695 662.7678
0176 1419015625 668.3912
0177 1419018554 674.1197
0178 1419021484 679.6854
0179 1419024414 685.6067
0180 1419027343 691.7574
0181 1419030273 697.4069
0182 1419033203 703.6387
0183 1419036132 709.3848
0184 1419039062 715.2554
0185 1419041992 721.2957
0186 1419044921 727.4337
0187 1419047851 733.4226
0188 1419050781 739.4070
0189 1419053710 745.3688
0190 1419056640 751.7028
0191 1419059570 758.1226
0192 1419062500 764.3029
0193 1419065429 770.4346
0194 1419068359 776.2964
0195 1419071289 782.7431
0196 1419074218 789.0192
0197 1419077148 795.3297
0198 1419080078 801.4047
0199 1419083007 807.7569
0200 1419085937 814.0827
0201 1419088867 820.5603
0202 1419091796 826.9722
0203 1419094726 833.4740
0204 1419097656 839.7672
0205 1419100585 846.2628
0206 1419103515 852.8776
0207 1419106445 859.2294
0208 1419109375 865.4040
0209 1419112304 871.6400
0210 1419115234 877.9730
0211 1419118164 884.4218
0212 1419121093 891.0541
0213 1419124023 897.4457
0214 1419126953 903.8671
0215 1419129882 910.5459
0216 1419132812 916.6338
0217 1419135742 923.1031
0218 1419138671 929.4372
0219 1419141601 935.5628
0220 1419144531 941.6848
0221 1419147460 948.0552
0222 1419150390 954.5004
0223 1419153320 960.7137
0224 1419156250 966.8510
0225 1419159179 973.3876
0226 1419162109 979.8060
0227 1419165039 985.6542
0228 1419167968 991.6639
0229 1419170898 997.6201
0230 1419173828 1003.4206
0231 1419176757 1009.5149
0232 1419179687 1015.2938
0233 1419182617 1021.1944
0234 1419185546 1027.1912
0235 1419188476 1033.0854
0236 1419191406 1038.8458
0237 1419194335 1044.1318
0238 1419197265 1049.8924
0239 1419200195 1055.8203
0240 1419203125 1061.0111
0241 1419206054 1066.2271
0242 1419208984 1071.5913
0243 1419211914 1077.0858
0244 1419214843 1082.1566
0245 1419217773 1087.5530
0246 1419220703 1092.8626
0247 1419223632 1098.0584
0248 1419226562 1103.0098
0249 1419229492 1108.2270
0250 1419232421 1112.9659
0251 1419235351 1117.5702
0252 1419238281 1121.9409
0253 1419241210 1126.7120
0254 1419244140 1131.2028
0255 1419247070 1135.7734
0256 1419250000 1140.5544
0257 1419252929 1144.8287
0258 1419255859 1149.1716
0259 1419258789 1153.3250
0260 1419261718 1157.1192
0261 1419264648 1161.6295
0262 1419267578 1165.3794
0263 1419270507 1169.1608
0264 1419273437 1172.9917
0265 1419276367 1176.6664
0266 1419279296 1180.0950
0267 1419282226 1184.0717
0268 1419285156 1187.8299
0269 1419288085 1191.1073
0270 1419291015 1194.6236
0271 1419293945 1197.8968
0272 1419296875 1201.1343
0273 1419299804 1203.9403
0274 1419302734 1206.7271
0275 1419305664 1209.9699
0276 1419308593 1212.7322
0277 1419311523 1215.8129
0278 1419314453 1218.7617
0279 1419317382 1221.5621
0280 1419320312 1224.0413
0281 1419323242 1228.3626
0282 1419326171 1232.1699
0283 1419329101 1234.1875
0284 1419332031 1236.3286
0285 1419334960 1237.0729
0286 1419337890 1238.2297
0287 1419340820 1240.1342
0288 1419343750 1242.0707
0289 1419346679 1244.3162
0290 1419349609 1246.2334
0291 1419352539 1248.1561
0292 1419355468 1250.3284
0293 1419358398 1252.2039
0294 1419361328 1253.6758
0295 1419364257 1255.0986
0296 1419367187 1256.3997
0297 1419370117 1257.9114
0298 1419373046 1259.9269
0299 1419375976 1261.0077
0300 1419378906 1261.8424
0301 1419381835 1263.4357
0302 1419384765 1264.7632
0303 1419387695 1266.3421
0304 1419390625 1267.4619
0305 1419393554 1267.8453
0306 1419396484 1268.7526
0307 1419399414 1269.6700
0308 1419402343 1270.9782
0309 1419405273 1271.9235
0310 1419408203 1272.8217
0311 1419411132 1273.2964
0312 1419414062 1274.1724
0313 1419416992 1275.4006
0314 1419419921 1276.3301
0315 1419422851 1276.5725
0316 1419425781 1276.6984
0317 1419428710 1277.1888
0318 1419431640 1277.6612
0319 1419434570 1278.3677
0320 1419437500 1278.6935
0321 1419440429 1279.1067
0322 1419443359 1279.5357
0323 1419446289 1280.0354
0324 1419449218 1280.2317
0325 1419452148 1280.6470
0326 1419455078 1281.1095
0327 1419458007 1280.8871
0328 1419460937 1280.7955
0329 1419463867 1281.3732
0330 1419466796 1281.5634
0331 1419469726 1281.4268
0332 1419472656 1281.4776
0333 1419475585 1281.3080
0334 1419478515 1281.7418
0335 1419481445 1282.2699
0336 1419484375 1282.0326
0337 1419487304 1281.8366
0338 1419490234 1281.6744
0339 1419493164 1281.6411
0340 1419496093 1281.3334
0341 1419499023 1281.6232
0342 1419501953 1281.2170
0343 1419504882 1280.9896
0344 1419507812 1280.9277
0345 1419510742 1281.0590
0346 1419513671 1281.5727
0347 1419516601 1281.0089
0348 1419519531 1280.1013
0349 1419522460 1279.8083
0350 1419525390 1279.8865
0351 1419528320 1279.6646
0352 1419531250 1279.0885
0353 1419534179 1279.1254
0354 1419537109 1279.0272
0355 1419540039 1278.7284
0356 1419542968 1278.4736
0357 1419545898 1278.5406
0358 1419548828 1278.0041
0359 1419551757 1277.1825
0360 1419554687 1276.8732
0361 1419557617 1276.6036
0362 1419560546 1276.2433
0363 1419563476 1275.9339
0364 1419566406 1275.7143
0365 1419569335 1275.3675
0366 1419572265 1275.4723
0367 1419575195 1274.7772
0368 1419578125 1274.5765
0369 1419581054 1273.7352
0370 1419583984 1273.4539
0371 1419586914 1272.7883
0372 1419589843 1272.4922
0373 1419592773 1272.1123
0374 1419595703 1271.8275
0375 1419598632 1271.7238
0376 1419601562 1271.3912
0377 1419604492 1271.0517
0378 1419607421 1270.6886
0379 1419610351 1270.3075
0380 1419613281 1269.5185
0381 1419616210 1268.7755
0382 1419619140 1268.3687
0383 1419622070 1268.0869
0384 1419625000 1267.5151
0385 1419627929 1267.4301
0386 1419630859 1267.4644
0387 1419633789 1266.9245
0388 1419636718 1266.4281
0389 1419639648 1266.2468
0390 1419642578 1265.6900
0391 1419645507 1265.1047
0392 1419648437 1264.6142
0393 1419651367 1264.2080
0394 1419654296 1264.1409
0395 1419657226 1265.2871
0396 1419660156 1265.8213
0397 1419663085 1266.0190
0398 1419666015 1264.6076
0399 1419668945 1262.9125
0400 1419671875 1262.5790
0401 1419674804 1261.7315
0402 1419677734 1260.8780
0403 1419680664 1260.3703
0404 1419683593 1260.1590
0405 1419686523 1260.0833
0406 1419689453 1259.5149
0407 1419692382 1259.3446
0408 1419695312 1258.8763
0409 1419698242 1258.4009
0410 1419701171 1258.5087
0411 1419704101 1258.2492
0412 1419707031 1257.7482
0413 1419709960 1257.0456
0414 1419712890 1256.8114
0415 1419715820 1256.5145
0416 1419718750 1256.6626
0417 1419721679 1256.3072
0418 1419724609 1255.9843
0419 1419727539 1255.6667
0420 1419730468 1255.2910
0421 1419733398 1254.9205
0422 1419736328 1254.8254
0423 1419739257 1254.1435
0424 1419742187 1253.8065
0425 1419745117 1253.7306
0426 1419748046 1253.6488
0427 1419750976 1253.4537
0428 1419753906 1252.7757
0429 1419756835 1252.8307
0430 1419759765 1253.0117
0431 1419762695 1252.5484
0432 1419765625 1252.3499
0433 1419768554 1251.8451
0434 1419771484 1251.7198
0435 1419774414 1251.2424
0436 1419777343 1251.0421
0437 1419780273 1250.8124
0438 1419783203 1250.8553
0439 1419786132 1250.6761
0440 1419789062 1250.4005
0441 1419791992 1250.3904
0442 1419794921 1250.3451
0443 1419797851 1250.1254
0444 1419800781 1249.5355
0445 1419803710 1249.4813
0446 1419806640 1249.0262
0447 1419809570 1248.9585
0448 1419812500 1249.1325
0449 1419815429 1249.1102
0450 1419818359 1248.8503
0451 1419821289 1248.8230
0452 1419824218 1248.8171
0453 1419827148 1249.0285
0454 1419830078 1248.3730
0455 1419833007 1248.0662
0456 1419835937 1247.9348
0457 1419838867 1248.0725
0458 1419841796 1247.5445
0459 1419844726 1247.8647
0460 1419847656 1247.8737
0461 1419850585 1247.8782
0462 1419853515 1247.5675
0463 1419856445 1247.6894
0464 1419859375 1247.7624
0465 1419862304 1247.3015
0466 1419865234 1247.1996
0467 1419868164 1246.9905
0468 1419871093 1247.0283
0469 1419874023 1246.9625
0470 1419876953 1247.0817
0471 1419879882 1247.0083
0472 1419882812 1247.0676
0473 1419885742 1246.9869
0474 1419888671 1246.8984
0475 1419891601 1246.7374
0476 1419894531 1246.7214
0477 1419897460 1246.5934
0478 1419900390 1246.6929
0479 1419903320 1246.7295
0480 1419906250 1246.9570
0481 1419909179 1246.7653
0482 1419912109 1246.7841
0483 1419915039 1246.7628
0484 1419917968 1246.7052
0485 1419920898 1247.0776
0486 1419923828 1247.1494
0487 1419926757 1246.9713
0488 1419929687 1246.5974
0489 1419932617 1246.4818
0490 1419935546 1246.6851
0491 1419938476 1246.9886
0492 1419941406 1246.9258
0493 1419944335 1247.0428
0494 1419947265 1246.8701
0495 1419950195 1247.6524
0496 1419953125 1247.6838
0497 1419956054 1247.3623
0498 1419958984 1247.1749
0499 1419961914 1246.7095
0500 1419964843 1247.0979
0501 1419967773 1246.9702
0502 1419970703 1247.4715
0503 1419973632 1247.3453
0504 1419976562 1247.3426
0505 1419979492 1247.7069
0506 1419982421 1247.8911
0507 1419985351 1248.3869
0508 1419988281 1248.7676
0509 1419991210 1249.3397
0510 1419994140 1250.2380
0511 1419997070 1250.6537
0512 1420000000 1249.6378
0513 1420002929 1248.9279
0514 1420005859 1248.6453
0515 1420008789 1248.6635
0516 1420011718 1249.0911
0517 1420014648 1249.4425
0518 1420017578 1249.2648
0519 1420020507 1248.9628
0520 1420023437 1248.7571
0521 1420026367 1249.1337
0522 1420029296 1249.3681
0523 1420032226 1249.2894
0524 1420035156 1249.2355
0525 1420038085 1249.5811
0526 1420041015 1250.0399
0527 1420043945 1250.3050
0528 1420046875 1250.0824
0529 1420049804 1250.5830
0530 1420052734 1250.2517
0531 1420055664 1250.5252
0532 1420058593 1250.6608
0533 1420061523 1250.9703
0534 1420064453 1251.3396
0535 1420067382 1251.3217
0536 1420070312 1251.6495
0537 1420073242 1251.7535
0538 1420076171 1252.0976
0539 1420079101 1252.5587
0540 1420082031 1252.0086
0541 1420084960 1252.0053
0542 1420087890 1252.1629
0543 1420090820 1252.4589
0544 1420093750 1252.6324
0545 1420096679 1252.7172
0546 1420099609 1252.9898
0547 1420102539 1253.4128
0548 1420105468 1253.4262
0549 1420108398 1253.6910
0550 1420111328 1253.6496
0551 1420114257 1253.9378
0552 1420117187 1253.9410
0553 1420120117 1253.8948
0554 1420123046 1254.1148
0555 1420125976 1254.6333
0556 1420128906 1254.9610
0557 1420131835 1255.0878
0558 1420134765 1255.1204
0559 1420137695 1255.4098
0560 1420140625 1255.8804
0561 1420143554 1255.5397
0562 1420146484 1255.6470
0563 1420149414 1255.9103
0564 1420152343 1256.2220
0565 1420155273 1256.1913
0566 1420158203 1256.6900
0567 1420161132 1256.8459
0568 1420164062 1257.0075
0569 1420166992 1257.0465
0570 1420169921 1257.7840
0571 1420172851 1257.9912
0572 1420175781 1258.1885
0573 1420178710 1257.9544
0574 1420181640 1258.0544
0575 1420184570 1258.3676
0576 1420187500 1258.5788
0577 1420190429 1258.7529
0578 1420193359 1259.2111
0579 1420196289 1259.3294
0580 1420199218 1259.5372
0581 1420202148 1259.4719
0582 1420205078 1260.1662
0583 1420208007 1260.5756
0584 1420210937 1260.2578
0585 1420213867 1260.1455
0586 1420216796 1260.3282
0587 1420219726 1260.9432
0588 1420222656 1260.8294
0589 1420225585 1261.3897
0590 1420228515 1261.5750
0591 1420231445 1261.4820
0592 1420234375 1261.8074
0593 1420237304 1262.3143
0594 1420240234 1262.2025
0595 1420243164 1262.1950
0596 1420246093 1262.2577
0597 1420249023 1262.5381
0598 1420251953 1262.8995
0599 1420254882 1263.3827
0600 1420257812 1264.0032
0601 1420260742 1263.5633
0602 1420263671 1263.9112
0603 1420266601 1264.2036
0604 1420269531 1264.5780
0605 1420272460 1264.2503
0606 1420275390 1264.0285
0607 1420278320 1264.2817
0608 1420281250 1264.4130
0609 1420284179 1264.6670
0610 1420287109 1265.0030
0611 1420290039 1265.4058
0612 1420292968 1265.2268
0613 1420295898 1265.4521
0614 1420298828 1266.2410
0615 1420301757 1265.8714
0616 1420304687 1265.7693
0617 1420307617 1266.0984
0618 1420310546 1266.2056
0619 1420313476 1266.1566
0620 1420316406 1266.7118
0621 1420319335 1266.9512
0622 1420322265 1267.4636
0623 1420325195 1268.2499
0624 1420328125 1270.1181
0625 1420331054 1270.2909
0626 1420333984 1268.1997
0627 1420336914 1267.7879
0628 1420339843 1267.7081
0629 1420342773 1267.6671
0630 1420345703 1267.8119
0631 1420348632 1268.2191
0632 1420351562 1268.4899
0633 1420354492 1268.6152
0634 1420357421 1268.7450
0635 1420360351 1268.9865
0636 1420363281 1268.9140
0637 1420366210 1268.5312
0638 1420369140 1268.8227
0639 1420372070 1268.9129
0640 1420375000 1269.4581
0641 1420377929 1269.7407
0642 1420380859 1269.7909
0643 1420383789 1269.8879
0644 1420386718 1269.8913
0645 1420389648 1269.9401
0646 1420392578 1270.3247
0647 1420395507 1270.4836
0648 1420398437 1270.3256
0649 1420401367 1270.2605
0650 1420404296 1270.3538
0651 1420407226 1270.5713
0652 1420410156 1270.7611
0653 1420413085 1270.7419
0654 1420416015 1271.0284
0655 1420418945 1271.3984
0656 1420421875 1271.4978
0657 1420424804 1272.1833
0658 1420427734 1271.9450
0659 1420430664 1271.6549
0660 1420433593 1271.5761
0661 1420436523 1271.7808
0662 1420439453 1271.7164
0663 1420442382 1272.3800
0664 1420445312 1272.3099
0665 1420448242 1272.4974
0666 1420451171 1272.6436
0667 1420454101 1272.3621
0668 1420457031 1273.0304
0669 1420459960 1273.0590
0670 1420462890 1272.7195
0671 1420465820 1272.7149
0672 1420468750 1272.9454
0673 1420471679 1273.6023
0674 1420474609 1273.6847
0675 1420477539 1273.7984
0676 1420480468 1274.1156
0677 1420483398 1274.4835
0678 1420486328 1275.0055
0679 1420489257 1275.0412
0680 1420492187 1274.7359
0681 1420495117 1274.9960
0682 1420498046 1275.2730
0683 1420500976 1275.5239
0684 1420503906 1275.8188
0685 1420506835 1275.7025
0686 1420509765 1275.7654
0687 1420512695 1276.1338
0688 1420515625 1276.5060
0689 1420518554 1276.3664
0690 1420521484 1276.2596
0691 1420524414 1275.9858
0692 1420527343 1276.1759
0693 1420530273 1276.2645
0694 1420533203 1276.0331
0695 1420536132 1276.4748
0696 1420539062 1276.3779
0697 1420541992 1276.0940
0698 1420544921 1276.1277
0699 1420547851 1276.3703
0700 1420550781 1276.1702
0701 1420553710 1275.5513
0702 1420556640 1275.5817
0703 1420559570 1275.5206
0704 1420562500 1276.0528
0705 1420565429 1275.3481
0706 1420568359 1275.1739
0707 1420571289 1275.0177
0708 1420574218 1275.0065
0709 1420577148 1274.7045
0710 1420580078 1274.5950
0711 1420583007 1275.0331
0712 1420585937 1274.2422
0713 1420588867 1273.8159
0714 1420591796 1273.7203
0715 1420594726 1273.5082
0716 1420597656 1273.4617
0717 1420600585 1273.4179
0718 1420603515 1273.2840
0719 1420606445 1273.0616
0720 1420609375 1273.2541
0721 1420612304 1273.4749
0722 1420615234 1273.3865
0723 1420618164 1272.6914
0724 1420621093 1272.7786
0725 1420624023 1272.4661
0726 1420626953 1272.5119
0727 1420629882 1272.3785
0728 1420632812 1272.2793
0729 1420635742 1272.4627
0730 1420638671 1272.0789
0731 1420641601 1272.2357
0732 1420644531 1272.4328
0733 1420647460 1272.1086
0734 1420650390 1271.7947
0735 1420653320 1271.9045
0736 1420656250 1272.1622
0737 1420659179 1273.5345
0738 1420662109 1274.4626
0739 1420665039 1273.6858
0740 1420667968 1272.6965
0741 1420670898 1271.8732
0742 1420673828 1271.9331
0743 1420676757 1271.5966
0744 1420679687 1271.1847
0745 1420682617 1271.3525
0746 1420685546 1271.0447
0747 1420688476 1270.6080
0748 1420691406 1270.8267
0749 1420694335 1270.7254
0750 1420697265 1270.7235
0751 1420700195 1270.5586
0752 1420703125 1270.5153
0753 1420706054 1270.5464
0754 1420708984 1270.2434
0755 1420711914 1270.0965
0756 1420714843 1270.2314
0757 1420717773 1269.8109
0758 1420720703 1269.9046
0759 1420723632 1269.7463
0760 1420726562 1269.5206
0761 1420729492 1269.5718
0762 1420732421 1269.1576
0763 1420735351 1269.1491
0764 1420738281 1269.7594
0765 1420741210 1269.4816
0766 1420744140 1269.1147
0767 1420747070 1268.8556
0768 1420750000 1268.7006
0769 1420752929 1268.5566
0770 1420755859 1268.6262
0771 1420758789 1268.4185
0772 1420761718 1268.3529
0773 1420764648 1268.1405
0774 1420767578 1268.1366
0775 1420770507 1268.2170
0776 1420773437 1267.8274
0777 1420776367 1267.4888
0778 1420779296 1267.4237
0779 1420782226 1266.9611
0780 1420785156 1266.8309
0781 1420788085 1266.8998
0782 1420791015 1266.8683
0783 1420793945 1266.4576
0784 1420796875 1266.4879
0785 1420799804 1266.6515
0786 1420802734 1266.1549
0787 1420805664 1265.8276
0788 1420808593 1265.6006
0789 1420811523 1265.4035
0790 1420814453 1265.1747
0791 1420817382 1265.3137
0792 1420820312 1264.9698
0793 1420823242 1264.6282
0794 1420826171 1264.2615
0795 1420829101 1264.5683
0796 1420832031 1264.8278
0797 1420834960 1264.4201
0798 1420837890 1263.8175
0799 1420840820 1263.6320
0800 1420843750 1263.4991
0801 1420846679 1263.5799
0802 1420849609 1263.1197
0803 1420852539 1262.9585
0804 1420855468 1262.7920
0805 1420858398 1262.5138
0806 1420861328 1262.3545
0807 1420864257 1262.6470
0808 1420867187 1262.0431
0809 1420870117 1261.6774
0810 1420873046 1261.4077
0811 1420875976 1261.3418
0812 1420878906 1261.2954
0813 1420881835 1260.8679
0814 1420884765 1261.1082
0815 1420887695 1260.7911
0816 1420890625 1260.1907
0817 1420893554 1260.2590
0818 1420896484 1260.7792
0819 1420899414 1260.3692
0820 1420902343 1259.5861
0821 1420905273 1259.2794
0822 1420908203 1259.3430
0823 1420911132 1259.1674
0824 1420914062 1258.5941
0825 1420916992 1258.6904
0826 1420919921 1258.5082
0827 1420922851 1258.4219
0828 1420925781 1258.4544
0829 1420928710 1258.2492
0830 1420931640 1257.5079
0831 1420934570 1257.2383
0832 1420937500 1257.2198
0833 1420940429 1257.1636
0834 1420943359 1257.0260
0835 1420946289 1256.6723
0836 1420949218 1256.3779
0837 1420952148 1256.1727
0838 1420955078 1256.2735
0839 1420958007 1256.2708
0840 1420960937 1255.6276
0841 1420963867 1255.3878
0842 1420966796 1255.0398
0843 1420969726 1254.7158
0844 1420972656 1255.0070
0845 1420975585 1254.7711
0846 1420978515 1254.6043
0847 1420981445 1254.3633
0848 1420984375 1254.0366
0849 1420987304 1253.9906
0850 1420990234 1254.6702
0851 1420993164 1255.8267
0852 1420996093 1256.0657
0853 1420999023 1254.8032
0854 1421001953 1253.7485
0855 1421004882 1253.1143
0856 1421007812 1252.7289
0857 1421010742 1252.8027
0858 1421013671 1252.7993
0859 1421016601 1252.1984
0860 1421019531 1252.2858
0861 1421022460 1252.2021
0862 1421025390 1251.6891
0863 1421028320 1250.9561
0864 1421031250 1250.8916
0865 1421034179 1251.1068
0866 1421037109 1250.8338
0867 1421040039 1250.2881
0868 1421042968 1249.8205
0869 1421045898 1249.7540
0870 1421048828 1249.7578
0871 1421051757 1249.6745
0872 1421054687 1249.5322
0873 1421057617 1248.9346
0874 1421060546 1249.0975
0875 1421063476 1248.7004
0876 1421066406 1248.3622
0877 1421069335 1248.3908
0878 1421072265 1248.3385
0879 1421075195 1247.8821
0880 1421078125 1247.5574
0881 1421081054 1247.4724
0882 1421083984 1247.4609
0883 1421086914 1246.9750
0884 1421089843 1246.8096
0885 1421092773 1246.7338
0886 1421095703 1246.5587
0887 1421098632 1246.3879
0888 1421101562 1246.0315
0889 1421104492 1246.0378
0890 1421107421 1246.0480
0891 1421110351 1245.7748
0892 1421113281 1245.5237
0893 1421116210 1245.5576
0894 1421119140 1245.1703
0895 1421122070 1244.5500
0896 1421125000 1244.5263
0897 1421127929 1244.2133
0898 1421130859 1244.4894
0899 1421133789 1243.8588
0900 1421136718 1243.8591
0901 1421139648 1243.3460
0902 1421142578 1243.4348
0903 1421145507 1243.8618
0904 1421148437 1243.6468
0905 1421151367 1242.6232
0906 1421154296 1242.4636
0907 1421157226 1242.2134
0908 1421160156 1241.9782
0909 1421163085 1241.8640
0910 1421166015 1241.6656
0911 1421168945 1241.6792
0912 1421171875 1241.7383
0913 1421174804 1241.7114
0914 1421177734 1241.5804
0915 1421180664 1240.9702
0916 1421183593 1240.6954
0917 1421186523 1240.6623
0918 1421189453 1240.2846
0919 1421192382 1240.1463
0920 1421195312 1240.1573
0921 1421198242 1239.9823
0922 1421201171 1240.1677
0923 1421204101 1239.6167
0924 1421207031 1239.1706
0925 1421209960 1239.4016
0926 1421212890 1238.7978
0927 1421215820 1238.5857
0928 1421218750 1238.5329
0929 1421221679 1238.2314
0930 1421224609 1238.0950
0931 1421227539 1237.9149
0932 1421230468 1237.7865
0933 1421233398 1237.5509
0934 1421236328 1237.3971
0935 1421239257 1237.5913
0936 1421242187 1237.3887
0937 1421245117 1236.8420
0938 1421248046 1236.3490
0939 1421250976 1236.4101
0940 1421253906 1236.1965
0941 1421256835 1235.7949
0942 1421259765 1235.5507
0943 1421262695 1235.6965
0944 1421265625 1235.6961
0945 1421268554 1235.5371
0946 1421271484 1235.5275
0947 1421274414 1235.4677
0948 1421277343 1234.6545
0949 1421280273 1234.4089
0950 1421283203 1234.3974
0951 1421286132 1234.0695
0952 1421289062 1233.9854
0953 1421291992 1233.8448
0954 1421294921 1233.9058
0955 1421297851 1233.8888
0956 1421300781 1233.2935
0957 1421303710 1233.1376
0958 1421306640 1233.0817
0959 1421309570 1232.5638
0960 1421312500 1232.4589
0961 1421315429 1232.4479
0962 1421318359 1232.3903
0963 1421321289 1232.3993
0964 1421324218 1233.2911
0965 1421327148 1234.7841
0966 1421330078 1234.3499
0967 1421333007 1233.2436
0968 1421335937 1232.5231
0969 1421338867 1231.6189
0970 1421341796 1230.9236
0971 1421344726 1230.9220
0972 1421347656 1230.7695
0973 1421350585 1230.5697
0974 1421353515 1230.5669
0975 1421356445 1230.2323
0976 1421359375 1230.1715
0977 1421362304 1229.7884
0978 1421365234 1229.9253
0979 1421368164 1230.1239
0980 1421371093 1229.4450
0981 1421374023 1229.2934
0982 1421376953 1228.7791
0983 1421379882 1228.7990
0984 1421382812 1228.8171
0985 1421385742 1228.5893
0986 1421388671 1228.8129
0987 1421391601 1228.4276
0988 1421394531 1228.3761
0989 1421397460 1227.9990
0990 1421400390 1227.6754
0991 1421403320 1227.6504
0992 1421406250 1227.4767
0993 1421409179 1227.0698
0994 1421412109 1227.2701
0995 1421415039 1227.0303
0996 1421417968 1226.8106
0997 1421420898 1227.0025
0998 1421423828 1227.0396
0999 1421426757 1226.9896
1000 1421429687 1226.9795
1001 1421432617 1226.4142
1002 1421435546 1225.8028
1003 1421438476 1225.7110
1004 1421441406 1225.6406
1005 1421444335 1225.4735
1006 1421447265 1225.6510
1007 1421450195 1225.5828
1008 1421453125 1225.6047
1009 1421456054 1225.3653
1010 1421458984 1225.0565
1011 1421461914 1225.0639
1012 1421464843 1224.9940
1013 1421467773 1224.6204
1014 1421470703 1224.4526
1015 1421473632 1224.2578
1016 1421476562 1224.4392
1017 1421479492 1223.9491
1018 1421482421 1223.9681
1019 1421485351 1223.7051
1020 1421488281 1223.5074
1021 1421491210 1223.8799
1022 1421494140 1223.9882
1023 1421497070 1223.5543
1024 1421500000 1223.1816
1025 1421502929 1223.1914
1026 1421505859 1222.9692
1027 1421508789 1223.0297
1028 1421511718 1223.0186
1029 1421514648 1222.8231
1030 1421517578 1222.7668
1031 1421520507 1222.7031
1032 1421523437 1222.4748
1033 1421526367 1222.6845
1034 1421529296 1222.4632
1035 1421532226 1222.2042
1036 1421535156 1221.8658
1037 1421538085 1222.4657
1038 1421541015 1222.1079
1039 1421543945 1221.9702
1040 1421546875 1222.0862
1041 1421549804 1221.7732
1042 1421552734 1222.1402
1043 1421555664 1222.2069
1044 1421558593 1221.9979
1045 1421561523 1221.0481
1046 1421564453 1221.2792
1047 1421567382 1221.0191
1048 1421570312 1221.1573
1049 1421573242 1221.1643
1050 1421576171 1220.9634
1051 1421579101 1220.8897
1052 1421582031 1220.8447
1053 1421584960 1221.1724
1054 1421587890 1220.7223
1055 1421590820 1220.6727
1056 1421593750 1220.7651
1057 1421596679 1220.7089
1058 1421599609 1220.4676
1059 1421602539 1220.7429
1060 1421605468 1220.6664
1061 1421608398 1220.5178
1062 1421611328 1220.2721
1063 1421614257 1220.1528
1064 1421617187 1220.6504
1065 1421620117 1220.1809
1066 1421623046 1219.9218
1067 1421625976 1219.8217
1068 1421628906 1219.8593
1069 1421631835 1220.0259
1070 1421634765 1219.9013
1071 1421637695 1219.9512
1072 1421640625 1219.8991
1073 1421643554 1219.5708
1074 1421646484 1219.6511
1075 1421649414 1219.9597
1076 1421652343 1219.8739
1077 1421655273 1220.0688
1078 1421658203 1221.2975
1079 1421661132 1222.0613
1080 1421664062 1222.0286
1081 1421666992 1220.7844
1082 1421669921 1219.7969
1083 1421672851 1219.3525
1084 1421675781 1219.5314
1085 1421678710 1219.4603
1086 1421681640 1219.5166
1087 1421684570 1219.3785
1088 1421687500 1218.8586
1089 1421690429 1218.9385
1090 1421693359 1219.0782
1091 1421696289 1219.0849
1092 1421699218 1218.8013
1093 1421702148 1219.1254
1094 1421705078 1218.9811
1095 1421708007 1218.9672
1096 1421710937 1218.9515
1097 1421713867 1218.9215
1098 1421716796 1218.8721
1099 1421719726 1218.4973
1100 1421722656 1218.5724
1101 1421725585 1218.5578
1102 1421728515 1218.4121
1103 1421731445 1218.6929
1104 1421734375 1218.4557
1105 1421737304 1218.7119
1106 1421740234 1218.6416
1107 1421743164 1218.9926
1108 1421746093 1218.7418
1109 1421749023 1218.2700
1110 1421751953 1218.4406
1111 1421754882 1218.0048
1112 1421757812 1218.4420
1113 1421760742 1218.3247
1114 1421763671 1218.3706
1115 1421766601 1218.4099
1116 1421769531 1218.3585
1117 1421772460 1218.5500
1118 1421775390 1218.1742
1119 1421778320 1218.3415
1120 1421781250 1218.2551
1121 1421784179 1218.3487
1122 1421787109 1218.0541
1123 1421790039 1217.9906
1124 1421792968 1218.0805
1125 1421795898 1218.2657
1126 1421798828 1218.2098
1127 1421801757 1218.1216
1128 1421804687 1218.6011
1129 1421807617 1218.6704
1130 1421810546 1218.3623
1131 1421813476 1218.0716
1132 1421816406 1217.9767
1133 1421819335 1218.0444
1134 1421822265 1218.2069
1135 1421825195 1218.1902
1136 1421828125 1218.0389
1137 1421831054 1218.0636
1138 1421833984 1218.0179
1139 1421836914 1218.2942
1140 1421839843 1218.1950
1141 1421842773 1218.0916
1142 1421845703 1217.8278
1143 1421848632 1217.8968
1144 1421851562 1218.3763
1145 1421854492 1218.3260
1146 1421857421 1218.4219
1147 1421860351 1218.3770
1148 1421863281 1218.3060
1149 1421866210 1218.3412
1150 1421869140 1218.5707
1151 1421872070 1218.0881
1152 1421875000 1218.0648
1153 1421877929 1218.0942
1154 1421880859 1218.0878
1155 1421883789 1218.3678
1156 1421886718 1218.3017
1157 1421889648 1218.2209
1158 1421892578 1218.3060
1159 1421895507 1218.4127
1160 1421898437 1218.7596
1161 1421901367 1218.9767
1162 1421904296 1218.3678
1163 1421907226 1218.4816
1164 1421910156 1218.3236
1165 1421913085 1218.5335
1166 1421916015 1218.2793
1167 1421918945 1218.2988
1168 1421921875 1218.7339
1169 1421924804 1218.4329
1170 1421927734 1218.5597
1171 1421930664 1218.4970
1172 1421933593 1218.7067
1173 1421936523 1218.6296
1174 1421939453 1218.5222
1175 1421942382 1218.5301
1176 1421945312 1218.3950
1177 1421948242 1218.5531
1178 1421951171 1218.7655
1179 1421954101 1218.9833
1180 1421957031 1219.1140
1181 1421959960 1218.9892
1182 1421962890 1219.4172
1183 1421965820 1219.5105
1184 1421968750 1219.1085
1185 1421971679 1218.9100
1186 1421974609 1219.0087
1187 1421977539 1219.1845
1188 1421980468 1219.2500
1189 1421983398 1219.5437
1190 1421986328 1219.8927
1191 1421989257 1220.6218
1192 1421992187 1222.3356
1193 1421995117 1223.2680
1194 1421998046 1222.9068
1195 1422000976 1221.0412
1196 1422003906 1219.8801
1197 1422006835 1219.8277
1198 1422009765 1219.9221
1199 1422012695 1219.6584
1200 1422015625 1219.8035
1201 1422018554 1220.0305
1202 1422021484 1219.8213
1203 1422024414 1220.1794
1204 1422027343 1220.3592
1205 1422030273 1220.2154
1206 1422033203 1220.0959
1207 1422036132 1220.1583
1208 1422039062 1220.3199
1209 1422041992 1220.3852
1210 1422044921 1220.3147
1211 1422047851 1220.6493
1212 1422050781 1220.5925
1213 1422053710 1220.7209
1214 1422056640 1221.0224
1215 1422059570 1221.2456
1216 1422062500 1220.7598
1217 1422065429 1220.9081
1218 1422068359 1220.7040
1219 1422071289 1220.9476
1220 1422074218 1221.0314
1221 1422077148 1221.2206
1222 1422080078 1221.3070
1223 1422083007 1221.4123
1224 1422085937 1221.6089
1225 1422088867 1222.2244
1226 1422091796 1221.7352
1227 1422094726 1221.5721
1228 1422097656 1221.6897
1229 1422100585 1221.7544
1230 1422103515 1221.9524
1231 1422106445 1222.0169
1232 1422109375 1222.1561
1233 1422112304 1222.1249
1234 1422115234 1222.2888
1235 1422118164 1222.8820
1236 1422121093 1222.7165
1237 1422124023 1222.5506
1238 1422126953 1222.5174
1239 1422129882 1222.3682
1240 1422132812 1222.3991
1241 1422135742 1222.5875
1242 1422138671 1222.6091
1243 1422141601 1223.0931
1244 1422144531 1222.9588
1245 1422147460 1222.9936
1246 1422150390 1223.1918
1247 1422153320 1223.5062
1248 1422156250 1223.1878
1249 1422159179 1223.4099
1250 1422162109 1223.4642
1251 1422165039 1223.8407
1252 1422167968 1223.8226
1253 1422170898 1223.7567
1254 1422173828 1223.7130
1255 1422176757 1224.0692
1256 1422179687 1224.1321
1257 1422182617 1224.4354
1258 1422185546 1224.4632
1259 1422188476 1224.2849
1260 1422191406 1224.3349
1261 1422194335 1224.2855
1262 1422197265 1224.5630
1263 1422200195 1224.5903
1264 1422203125 1224.8055
1265 1422206054 1224.9589
1266 1422208984 1224.9540
1267 1422211914 1225.3731
1268 1422214843 1225.7080
1269 1422217773 1225.7294
1270 1422220703 1225.1292
1271 1422223632 1225.1759
1272 1422226562 1225.5176
1273 1422229492 1225.6074
1274 1422232421 1225.4041
1275 1422235351 1225.4118
1276 1422238281 1225.7081
1277 1422241210 1225.9307
1278 1422244140 1226.1629
1279 1422247070 1226.3083
1280 1422250000 1226.0085
1281 1422252929 1226.0161
1282 1422255859 1226.0949
1283 1422258789 1226.2889
1284 1422261718 1226.1720
1285 1422264648 1226.6548
1286 1422267578 1227.1025
1287 1422270507 1226.8358
1288 1422273437 1226.8064
1289 1422276367 1226.6859
1290 1422279296 1227.2876
1291 1422282226 1226.7755
1292 1422285156 1226.9993
1293 1422288085 1227.1419
1294 1422291015 1227.4337
1295 1422293945 1227.4949
1296 1422296875 1227.5790
1297 1422299804 1227.6282
1298 1422302734 1227.7242
1299 1422305664 1227.9727
1300 1422308593 1228.0859
1301 1422311523 1228.0502
1302 1422314453 1228.0389
1303 1422317382 1228.3232
1304 1422320312 1228.6688
1305 1422323242 1230.0826
1306 1422326171 1230.7122
1307 1422329101 1231.6060
1308 1422332031 1231.8734
1309 1422334960 1230.3772
1310 1422337890 1229.5344
1311 1422340820 1229.2879
1312 1422343750 1229.0569
1313 1422346679 1228.6071
1314 1422349609 1228.5805
1315 1422352539 1229.0732
1316 1422355468 1229.3079
1317 1422358398 1229.1785
1318 1422361328 1229.0017
1319 1422364257 1229.6292
1320 1422367187 1230.0358
1321 1422370117 1229.5649
1322 1422373046 1229.6987
1323 1422375976 1229.7907
1324 1422378906 1229.5883
1325 1422381835 1229.7841
1326 1422384765 1229.7405
1327 1422387695 1229.8086
1328 1422390625 1229.9163
1329 1422393554 1230.4482
1330 1422396484 1230.6940
1331 1422399414 1230.4523
1332 1422402343 1230.6454
1333 1422405273 1230.7904
1334 1422408203 1230.5934
1335 1422411132 1230.2927
1336 1422414062 1230.4908
1337 1422416992 1230.8056
1338 1422419921 1230.8689
1339 1422422851 1230.8042
1340 1422425781 1230.7571
1341 1422428710 1230.9506
1342 1422431640 1231.0205
1343 1422434570 1231.4245
1344 1422437500 1231.6201
1345 1422440429 1231.3736
1346 1422443359 1231.1327
1347 1422446289 1231.1885
1348 1422449218 1231.7967
1349 1422452148 1231.7961
1350 1422455078 1232.0363
1351 1422458007 1231.4985
1352 1422460937 1231.7107
1353 1422463867 1232.5156
1354 1422466796 1232.0913
1355 1422469726 1232.2790
1356 1422472656 1231.9040
1357 1422475585 1231.7467
1358 1422478515 1232.1083
1359 1422481445 1232.2333
1360 1422484375 1232.3132
1361 1422487304 1232.5279
1362 1422490234 1232.3881
1363 1422493164 1232.7707
1364 1422496093 1233.3380
1365 1422499023 1233.3341
1366 1422501953 1232.9728
1367 1422504882 1232.7928
1368 1422507812 1232.8362
1369 1422510742 1232.8887
1370 1422513671 1232.8873
1371 1422516601 1233.2062
1372 1422519531 1233.6324
1373 1422522460 1233.7179
1374 1422525390 1233.6922
1375 1422528320 1233.4813
1376 1422531250 1233.6494
1377 1422534179 1233.6000
1378 1422537109 1233.4770
1379 1422540039 1233.7379
1380 1422542968 1234.0478
1381 1422545898 1233.7517
1382 1422548828 1233.8447
1383 1422551757 1234.2121
1384 1422554687 1234.5738
1385 1422557617 1234.3369
1386 1422560546 1234.7522
1387 1422563476 1234.5442
1388 1422566406 1234.3120
1389 1422569335 1234.4131
1390 1422572265 1234.6649
1391 1422575195 1234.7937
1392 1422578125 1234.7843
1393 1422581054 1234.8682
1394 1422583984 1234.8604
1395 1422586914 1234.8916
1396 1422589843 1235.2385
1397 1422592773 1235.0792
1398 1422595703 1235.1462
1399 1422598632 1235.0453
1400 1422601562 1235.3007
1401 1422604492 1235.1667
1402 1422607421 1234.9361
1403 1422610351 1235.3100
1404 1422613281 1235.3038
1405 1422616210 1235.6357
1406 1422619140 1235.7689
1407 1422622070 1235.9023
1408 1422625000 1236.1874
1409 1422627929 1235.9497
1410 1422630859 1235.7660
1411 1422633789 1235.7288
1412 1422636718 1236.0264
1413 1422639648 1236.1019
1414 1422642578 1236.1117
1415 1422645507 1236.1991
1416 1422648437 1236.2672
1417 1422651367 1236.7457
1418 1422654296 1237.4024
1419 1422657226 1238.2023
1420 1422660156 1239.1443
1421 1422663085 1240.2099
1422 1422666015 1239.4759
1423 1422668945 1237.8732
1424 1422671875 1236.6931
1425 1422674804 1236.7990
1426 1422677734 1237.0832
1427 1422680664 1236.9927
1428 1422683593 1236.9847
1429 1422686523 1237.3150
1430 1422689453 1237.0122
1431 1422692382 1236.8207
1432 1422695312 1236.8363
1433 1422698242 1236.7489
1434 1422701171 1237.1109
1435 1422704101 1236.8593
1436 1422707031 1237.0142
1437 1422709960 1236.9614
1438 1422712890 1237.2307
1439 1422715820 1237.4609
1440 1422718750 1237.2955
1441 1422721679 1237.2358
1442 1422724609 1237.3593
1443 1422727539 1237.1214
1444 1422730468 1237.3362
1445 1422733398 1237.2309
1446 1422736328 1237.2605
1447 1422739257 1237.6327
1448 1422742187 1237.1004
1449 1422745117 1237.4062
1450 1422748046 1238.1473
1451 1422750976 1238.1719
1452 1422753906 1237.7296
1453 1422756835 1237.4000
1454 1422759765 1237.4222
1455 1422762695 1237.7202
1456 1422765625 1237.3602
1457 1422768554 1237.4586
1458 1422771484 1237.5861
1459 1422774414 1237.8746
1460 1422777343 1238.0238
1461 1422780273 1238.1383
1462 1422783203 1237.9739
1463 1422786132 1237.8062
1464 1422789062 1237.8919
1465 1422791992 1238.0248
1466 1422794921 1238.1348
1467 1422797851 1237.6585
1468 1422800781 1238.0899
1469 1422803710 1238.4740
1470 1422806640 1238.4416
1471 1422809570 1238.3653
1472 1422812500 1238.5330
1473 1422815429 1238.3351
1474 1422818359 1238.0848
1475 1422821289 1238.1670
1476 1422824218 1238.1054
1477 1422827148 1237.7612
1478 1422830078 1237.7313
1479 1422833007 1237.7668
1480 1422835937 1238.0394
1481 1422838867 1238.3373
1482 1422841796 1238.5909
1483 1422844726 1237.8436
1484 1422847656 1237.9798
1485 1422850585 1237.9801
1486 1422853515 1238.0362
1487 1422856445 1238.4172
1488 1422859375 1238.0269
1489 1422862304 1238.2436
1490 1422865234 1238.3574
1491 1422868164 1238.5346
1492 1422871093 1238.1150
1493 1422874023 1239.0313
1494 1422876953 1238.6748
1495 1422879882 1238.4326
1496 1422882812 1238.2115
1497 1422885742 1238.3725
1498 1422888671 1238.5458
1499 1422891601 1238.5268
1500 1422894531 1238.5650
1501 1422897460 1238.7149
1502 1422900390 1238.4435
1503 1422903320 1238.4785
1504 1422906250 1238.5444
1505 1422909179 1239.0151
1506 1422912109 1238.5881
1507 1422915039 1238.7688
1508 1422917968 1238.7880
1509 1422920898 1238.5894
1510 1422923828 1238.5121
1511 1422926757 1238.6898
1512 1422929687 1238.9056
1513 1422932617 1238.7260
1514 1422935546 1238.9584
1515 1422938476 1239.4081
1516 1422941406 1239.0219
1517 1422944335 1238.8934
1518 1422947265 1238.7196
1519 1422950195 1239.3838
1520 1422953125 1239.1832
1521 1422956054 1239.0407
1522 1422958984 1239.1443
1523 1422961914 1239.0548
1524 1422964843 1239.2058
1525 1422967773 1239.8289
1526 1422970703 1239.4438
1527 1422973632 1239.2194
1528 1422976562 1239.1014
1529 1422979492 1239.3250
1530 1422982421 1239.7216
1531 1422985351 1239.6828
1532 1422988281 1240.4416
1533 1422991210 1241.6869
1534 1422994140 1243.6437
1535 1422997070 1245.1020
1536 1423000000 1242.9179
1537 1423002929 1240.9641
1538 1423005859 1240.0087
1539 1423008789 1239.9962
1540 1423011718 1240.2530
1541 1423014648 1240.0134
1542 1423017578 1240.0207
1543 1423020507 1240.5219
1544 1423023437 1240.7174
1545 1423026367 1240.5667
1546 1423029296 1240.8255
1547 1423032226 1241.3565
1548 1423035156 1240.9392
1549 1423038085 1240.7000
1550 1423041015 1240.6803
1551 1423043945 1240.9842
1552 1423046875 1241.0388
1553 1423049804 1240.9183
1554 1423052734 1241.1680
1555 1423055664 1241.4897
1556 1423058593 1241.7080
1557 1423061523 1241.8138
1558 1423064453 1242.0861
1559 1423067382 1241.7491
1560 1423070312 1241.6270
1561 1423073242 1241.4773
1562 1423076171 1241.8947
1563 1423079101 1241.5512
1564 1423082031 1241.7798
1565 1423084960 1241.9208
1566 1423087890 1242.5888
1567 1423090820 1242.5534
1568 1423093750 1243.0090
1569 1423096679 1242.8968
1570 1423099609 1242.6421
1571 1423102539 1242.7407
1572 1423105468 1243.1072
1573 1423108398 1243.2498
1574 1423111328 1243.1793
1575 1423114257 1243.3903
1576 1423117187 1243.9233
1577 1423120117 1244.2649
1578 1423123046 1243.9678
1579 1423125976 1243.9569
1580 1423128906 1244.4432
1581 1423131835 1244.3308
1582 1423134765 1244.5141
1583 1423137695 1244.8582
1584 1423140625 1245.0959
1585 1423143554 1244.9669
1586 1423146484 1245.2861
1587 1423149414 1245.5469
1588 1423152343 1245.8459
1589 1423155273 1246.3889
1590 1423158203 1246.7876
1591 1423161132 1246.6346
1592 1423164062 1246.4840
1593 1423166992 1246.5194
1594 1423169921 1246.9479
1595 1423172851 1246.7904
1596 1423175781 1247.3624
1597 1423178710 1247.8598
1598 1423181640 1247.7215
1599 1423184570 1247.8821
1600 1423187500 1248.5257
1601 1423190429 1248.4192
1602 1423193359 1248.4923
1603 1423196289 1248.7442
1604 1423199218 1248.9124
1605 1423202148 1249.5267
1606 1423205078 1249.6190
1607 1423208007 1250.1236
1608 1423210937 1250.6701
1609 1423213867 1250.6442
1610 1423216796 1251.4035
1611 1423219726 1251.6717
1612 1423222656 1251.4265
1613 1423225585 1251.9184
1614 1423228515 1251.9252
1615 1423231445 1252.4158
1616 1423234375 1252.6058
1617 1423237304 1252.8961
1618 1423240234 1253.0512
1619 1423243164 1254.0360
1620 1423246093 1254.2892
1621 1423249023 1254.8731
1622 1423251953 1255.2724
1623 1423254882 1255.2237
1624 1423257812 1255.6326
1625 1423260742 1255.9121
1626 1423263671 1256.3757
1627 1423266601 1256.6529
1628 1423269531 1257.1792
1629 1423272460 1257.7901
1630 1423275390 1258.1356
1631 1423278320 1259.0935
1632 1423281250 1259.9280
1633 1423284179 1259.8512
1634 1423287109 1259.9890
1635 1423290039 1260.4598
1636 1423292968 1260.7539
1637 1423295898 1261.5031
1638 1423298828 1261.7993
1639 1423301757 1262.4604
1640 1423304687 1263.0378
1641 1423307617 1263.7832
1642 1423310546 1264.5455
1643 1423313476 1265.4262
1644 1423316406 1265.5190
1645 1423319335 1266.0106
1646 1423322265 1267.6059
1647 1423325195 1269.8600
1648 1423328125 1272.9988
1649 1423331054 1273.1466
1650 1423333984 1271.1004
1651 1423336914 1270.2055
1652 1423339843 1270.8508
1653 1423342773 1271.2402
1654 1423345703 1271.4617
1655 1423348632 1272.4543
1656 1423351562 1273.0301
1657 1423354492 1273.8052
1658 1423357421 1274.4522
1659 1423360351 1274.9910
1660 1423363281 1276.0009
1661 1423366210 1276.9417
1662 1423369140 1277.7992
1663 1423372070 1278.9039
1664 1423375000 1279.7250
1665 1423377929 1280.7167
1666 1423380859 1281.4936
1667 1423383789 1282.1915
1668 1423386718 1282.9078
1669 1423389648 1284.0374
1670 1423392578 1285.0350
1671 1423395507 1285.7319
1672 1423398437 1286.8615
1673 1423401367 1288.4974
1674 1423404296 1289.3205
1675 1423407226 1290.4764
1676 1423410156 1291.3449
1677 1423413085 1292.0187
1678 1423416015 1292.9824
1679 1423418945 1294.5741
1680 1423421875 1295.6659
1681 1423424804 1296.6719
1682 1423427734 1298.0561
1683 1423430664 1299.3788
1684 1423433593 1301.1371
1685 1423436523 1302.0222
1686 1423439453 1303.2592
1687 1423442382 1304.7123
1688 1423445312 1306.2488
1689 1423448242 1307.3270
1690 1423451171 1308.6840
1691 1423454101 1310.1614
1692 1423457031 1312.0117
1693 1423459960 1313.7299
1694 1423462890 1315.3005
1695 1423465820 1316.9358
1696 1423468750 1318.3862
1697 1423471679 1320.0143
1698 1423474609 1321.5867
1699 1423477539 1322.6185
1700 1423480468 1324.4069
1701 1423483398 1326.7844
1702 1423486328 1328.3968
1703 1423489257 1329.9432
1704 1423492187 1331.9334
1705 1423495117 1333.9525
1706 1423498046 1336.3839
1707 1423500976 1337.7166
1708 1423503906 1339.8010
1709 1423506835 1341.8353
1710 1423509765 1343.9157
1711 1423512695 1345.9333
1712 1423515625 1348.4737
1713 1423518554 1350.5161
1714 1423521484 1352.6072
1715 1423524414 1354.9405
1716 1423527343 1357.5230
1717 1423530273 1360.2707
1718 1423533203 1362.5771
1719 1423536132 1364.7695
1720 1423539062 1367.2040
1721 1423541992 1369.5705
1722 1423544921 1372.1775
1723 1423547851 1374.9653
1724 1423550781 1377.7364
1725 1423553710 1380.6016
1726 1423556640 1383.4524
1727 1423559570 1386.3012
1728 1423562500 1389.7522
1729 1423565429 1392.8126
1730 1423568359 1395.9262
1731 1423571289 1398.1442
1732 1423574218 1401.5551
1733 1423577148 1404.8716
1734 1423580078 1408.2241
1735 1423583007 1411.4328
1736 1423585937 1414.9100
1737 1423588867 1418.7315
1738 1423591796 1422.3174
1739 1423594726 1425.8967
1740 1423597656 1429.0880
1741 1423600585 1432.9491
1742 1423603515 1436.9198
1743 1423606445 1440.8441
1744 1423609375 1444.9355
1745 1423612304 1448.9849
1746 1423615234 1452.7577
1747 1423618164 1457.0266
1748 1423621093 1461.9055
1749 1423624023 1466.7289
1750 1423626953 1471.2799
1751 1423629882 1475.8929
1752 1423632812 1480.0654
1753 1423635742 1484.2812
1754 1423638671 1489.4088
1755 1423641601 1494.5869
1756 1423644531 1499.0819
1757 1423647460 1504.7212
1758 1423650390 1510.0768
1759 1423653320 1515.4969
1760 1423656250 1522.7781
1761 1423659179 1532.0968
1762 1423662109 1539.4035
1763 1423665039 1542.3538
1764 1423667968 1545.3864
1765 1423670898 1549.5110
1766 1423673828 1555.5058
1767 1423676757 1561.2394
1768 1423679687 1567.7388
1769 1423682617 1574.3100
1770 1423685546 1580.6911
1771 1423688476 1587.3095
1772 1423691406 1594.4059
1773 1423694335 1600.6462
1774 1423697265 1607.3555
1775 1423700195 1614.5301
1776 1423703125 1621.9317
1777 1423706054 1629.3767
1778 1423708984 1636.3272
1779 1423711914 1643.9224
1780 1423714843 1651.6647
1781 1423717773 1659.8698
1782 1423720703 1668.2795
1783 1423723632 1676.3593
1784 1423726562 1683.4507
1785 1423729492 1691.6659
1786 1423732421 1699.9943
1787 1423735351 1708.7577
1788 1423738281 1716.9368
1789 1423741210 1725.3529
1790 1423744140 1734.5977
1791 1423747070 1743.6366
1792 1423750000 1751.9266
1793 1423752929 1761.0108
1794 1423755859 1770.0204
1795 1423758789 1778.6661
1796 1423761718 1787.1593
1797 1423764648 1796.3947
1798 1423767578 1805.4024
1799 1423770507 1814.1985
1800 1423773437 1823.4539
1801 1423776367 1833.0009
1802 1423779296 1841.1713
1803 1423782226 1850.1774
1804 1423785156 1858.9803
1805 1423788085 1867.3767
1806 1423791015 1876.0003
1807 1423793945 1884.2018
1808 1423796875 1891.9698
1809 1423799804 1900.0158
1810 1423802734 1906.7687
1811 1423805664 1914.3751
1812 1423808593 1921.3067
1813 1423811523 1928.0958
1814 1423814453 1934.6460
1815 1423817382 1940.6304
1816 1423820312 1945.0546
1817 1423823242 1948.7633
1818 1423826171 1952.8429
1819 1423829101 1956.4005
1820 1423832031 1958.7236
1821 1423834960 1960.0189
1822 1423837890 1960.7212
1823 1423840820 1961.3428
1824 1423843750 1960.6945
1825 1423846679 1958.1851
1826 1423849609 1954.7048
1827 1423852539 1950.1577
1828 1423855468 1944.4461
1829 1423858398 1937.5886
1830 1423861328 1929.9694
1831 1423864257 1920.3614
1832 1423867187 1909.5961
1833 1423870117 1897.6734
1834 1423873046 1884.2383
1835 1423875976 1869.2012
1836 1423878906 1852.3587
1837 1423881835 1833.5477
1838 1423884765 1813.8495
1839 1423887695 1792.2950
1840 1423890625 1769.4924
1841 1423893554 1745.2670
1842 1423896484 1718.9961
1843 1423899414 1691.7415
1844 1423902343 1662.9882
1845 1423905273 1633.2854
1846 1423908203 1601.3656
1847 1423911132 1567.9540
1848 1423914062 1533.8485
1849 1423916992 1498.6217
1850 1423919921 1461.7227
1851 1423922851 1424.1540
1852 1423925781 1386.0770
1853 1423928710 1346.3975
1854 1423931640 1306.9424
1855 1423934570 1266.6378
1856 1423937500 1226.1437
1857 1423940429 1184.8805
1858 1423943359 1143.8619
1859 1423946289 1102.4801
1860 1423949218 1061.1000
1861 1423952148 1020.0726
1862 1423955078 979.6317
1863 1423958007 939.5764
1864 1423960937 899.6543
1865 1423963867 860.6043
1866 1423966796 822.1212
1867 1423969726 784.4426
1868 1423972656 747.4259
1869 1423975585 711.5991
1870 1423978515 676.8946
1871 1423981445 643.0765
1872 1423984375 610.2950
1873 1423987304 578.8230
1874 1423990234 548.5322
1875 1423993164 519.8863
1876 1423996093 491.8479
1877 1423999023 464.0715
1878 1424001953 437.1700
1879 1424004882 411.8713
1880 1424007812 387.9839
1881 1424010742 365.1228
1882 1424013671 343.3878
1883 1424016601 322.7391
1884 1424019531 303.0551
1885 1424022460 284.4514
1886 1424025390 266.7658
1887 1424028320 250.0205
1888 1424031250 234.1681
1889 1424034179 219.2629
1890 1424037109 205.0365
1891 1424040039 191.6533
1892 1424042968 179.0747
1893 1424045898 167.0976
1894 1424048828 155.8554
1895 1424051757 145.3106
1896 1424054687 135.3978
1897 1424057617 126.0356
1898 1424060546 117.2648
1899 1424063476 109.0187
1900 1424066406 101.3251
1901 1424069335 94.0800
1902 1424072265 87.2803
1903 1424075195 80.9191
1904 1424078125 74.9681
1905 1424081054 69.4113
1906 1424083984 64.2206
1907 1424086914 59.3563
1908 1424089843 54.8196
1909 1424092773 50.5955
1910 1424095703 46.6534
1911 1424098632 42.9957
1912 1424101562 39.5860
1913 1424104492 36.3940
1914 1424107421 33.4505
1915 1424110351 30.7072
1916 1424113281 28.1671
1917 1424116210 25.8142
1918 1424119140 23.6360
1919 1424122070 21.6299
1920 1424125000 19.7684
1921 1424127929 18.0487
1922 1424130859 16.5009
1923 1424133789 15.0426
1924 1424136718 13.6865
1925 1424139648 12.4691
1926 1424142578 11.3402
1927 1424145507 10.3161
1928 1424148437 9.3862
1929 1424151367 8.5371
1930 1424154296 7.7686
1931 1424157226 7.0762
1932 1424160156 6.4584
1933 1424163085 5.9167
1934 1424166015 5.4223
1935 1424168945 4.9736
1936 1424171875 4.5628
1937 1424174804 4.1985
1938 1424177734 3.8918
1939 1424180664 3.6289
1940 1424183593 3.4015
1941 1424186523 3.2129
1942 1424189453 3.0542
1943 1424192382 2.9251
1944 1424195312 2.8277
1945 1424198242 2.7485
1946 1424201171 2.6961
1947 1424204101 2.6706
1948 1424207031 2.6514
1949 1424209960 2.6626
1950 1424212890 2.6917
1951 1424215820 2.7135
1952 1424218750 2.7899
1953 1424221679 2.8727
1954 1424224609 2.9758
1955 1424227539 3.3328
1956 1424230468 3.1841
1957 1424233398 3.1521
1958 1424236328 3.2463
1959 1424239257 3.3529
1960 1424242187 3.4631
1961 1424245117 3.5769
1962 1424248046 3.6922
1963 1424250976 3.8129
1964 1424253906 3.9331
1965 1424256835 4.0558
1966 1424259765 4.1792
1967 1424262695 4.3024
1968 1424265625 4.4282
1969 1424268554 4.5518
1970 1424271484 4.6742
1971 1424274414 4.7962
1972 1424277343 4.9168
1973 1424280273 5.0403
1974 1424283203 5.1654
1975 1424286132 5.2648
1976 1424289062 5.3726
1977 1424291992 5.4832
1978 1424294921 5.5899
1979 1424297851 5.6925
1980 1424300781 5.7943
1981 1424303710 5.8920
1982 1424306640 5.9953
1983 1424309570 6.0848
1984 1424312500 6.3222
1985 1424315429 7.2364
1986 1424318359 6.8353
1987 1424321289 6.5619
1988 1424324218 6.7113
1989 1424327148 6.5824
1990 1424330078 6.6593
1991 1424333007 6.7428
1992 1424335937 6.7717
1993 1424338867 6.8615
1994 1424341796 6.8984
1995 1424344726 6.9098
1996 1424347656 6.9550
1997 1424350585 6.9890
1998 1424353515 7.0258
1999 1424356445 7.0654
2000 1424359375 7.1011
2001 1424362304 7.1359
2002 1424365234 7.1714
2003 1424368164 7.1958
2004 1424371093 7.2187
2005 1424374023 7.2438
2006 1424376953 7.2679
2007 1424379882 7.2899
2008 1424382812 7.3087
2009 1424385742 7.3296
2010 1424388671 7.3472
2011 1424391601 7.3621
2012 1424394531 7.3906
2013 1424397460 7.4149
2014 1424400390 7.4416
2015 1424403320 7.6559
2016 1424406250 7.6303
2017 1424409179 7.8279
2018 1424412109 8.4752
2019 1424415039 7.7054
2020 1424417968 7.5618
2021 1424420898 7.6122
2022 1424423828 7.5861
2023 1424426757 7.6011
2024 1424429687 7.6311
2025 1424432617 7.6582
2026 1424435546 7.6891
2027 1424438476 7.7232
2028 1424441406 7.7719
2029 1424444335 7.8231
2030 1424447265 7.8574
2031 1424450195 7.9411
2032 1424453125 8.0015
2033 1424456054 8.0397
2034 1424458984 8.1795
2035 1424461914 8.2149
2036 1424464843 8.2803
2037 1424467773 8.4700
2038 1424470703 8.4744
2039 1424473632 8.6047
2040 1424476562 8.7872
2041 1424479492 8.7983
2042 1424482421 8.9859
2043 1424485351 9.1288
2044 1424488281 9.2171
2045 1424491210 9.4144
2046 1424494140 9.5716
2047 1424497070 9.7058
